Temp	Magnetization	Heat capacity	Energy
2.500000	0.206219	8.840487E-004	-1.108365
2.497487	0.209075	8.874220E-004	-1.110072
2.494975	0.203380	8.802705E-004	-1.109869
2.492462	0.206450	8.814855E-004	-1.114648
2.489950	0.209340	8.905776E-004	-1.117813
2.487437	0.210943	8.998516E-004	-1.117481
2.484925	0.215684	8.915985E-004	-1.119858
2.482412	0.213869	9.074263E-004	-1.123803
2.479899	0.215345	9.264026E-004	-1.126207
2.477387	0.218765	9.078996E-004	-1.128398
2.474874	0.226436	9.371543E-004	-1.131238
2.472362	0.226564	9.283749E-004	-1.133309
2.469849	0.218024	9.171395E-004	-1.133102
2.467337	0.222864	9.433605E-004	-1.135885
2.464824	0.223739	9.505997E-004	-1.137824
2.462312	0.233989	9.660695E-004	-1.143066
2.459799	0.230251	9.852892E-004	-1.144776
2.457286	0.231519	9.801537E-004	-1.147170
2.454774	0.235067	9.790500E-004	-1.149286
2.452261	0.251739	1.010675E-003	-1.155688
2.449749	0.244253	1.005555E-003	-1.155984
2.447236	0.244091	1.015238E-003	-1.158082
2.444724	0.248762	1.045984E-003	-1.161225
2.442211	0.259316	1.058509E-003	-1.164887
2.439698	0.242742	1.027035E-003	-1.162296
2.437186	0.255077	1.005349E-003	-1.167294
2.434673	0.257772	1.100693E-003	-1.171603
2.432161	0.271991	1.054527E-003	-1.175842
2.429648	0.279134	1.105431E-003	-1.178313
2.427136	0.284347	1.141413E-003	-1.180565
2.424623	0.281921	1.152381E-003	-1.182962
2.422111	0.280031	1.134167E-003	-1.185244
2.419598	0.280534	1.138282E-003	-1.187518
2.417085	0.294611	1.177928E-003	-1.192544
2.414573	0.302627	1.190313E-003	-1.196999
2.412060	0.288563	1.153750E-003	-1.195225
2.409548	0.308005	1.241039E-003	-1.202099
2.407035	0.298992	1.192165E-003	-1.201922
2.404523	0.301928	1.206275E-003	-1.204968
2.402010	0.303133	1.235748E-003	-1.208466
2.399497	0.332319	1.262695E-003	-1.216718
2.396985	0.326008	1.307509E-003	-1.218535
2.394472	0.321259	1.304825E-003	-1.218254
2.391960	0.313079	1.254535E-003	-1.217336
2.389447	0.346638	1.283194E-003	-1.227848
2.386935	0.349967	1.351318E-003	-1.233397
2.384422	0.351836	1.366500E-003	-1.235078
2.381910	0.351748	1.393040E-003	-1.237461
2.379397	0.342358	1.389731E-003	-1.236674
2.376884	0.355108	1.387883E-003	-1.242702
2.374372	0.366186	1.403258E-003	-1.247133
2.371859	0.363833	1.409671E-003	-1.249949
2.369347	0.384481	1.449607E-003	-1.256509
2.366834	0.393957	1.485580E-003	-1.261355
2.364322	0.371298	1.536460E-003	-1.257854
2.361809	0.413785	1.591759E-003	-1.272588
2.359296	0.408914	1.546493E-003	-1.274996
2.356784	0.415553	1.548267E-003	-1.276709
2.354271	0.416830	1.531738E-003	-1.276921
2.351759	0.433168	1.551822E-003	-1.285756
2.349246	0.439262	1.596966E-003	-1.290387
2.346734	0.439014	1.598286E-003	-1.292242
2.344221	0.435341	1.659648E-003	-1.293367
2.341709	0.456870	1.730965E-003	-1.302545
2.339196	0.456712	1.687574E-003	-1.305342
2.336683	0.461502	1.723769E-003	-1.307419
2.334171	0.474643	1.717524E-003	-1.313187
2.331658	0.437851	1.712478E-003	-1.307996
2.329146	0.472545	1.773738E-003	-1.317075
2.326633	0.488552	1.756121E-003	-1.326393
2.324121	0.484078	1.750151E-003	-1.327239
2.321608	0.483416	1.783238E-003	-1.329918
2.319095	0.503641	1.787584E-003	-1.336637
2.316583	0.515000	1.838198E-003	-1.341829
2.314070	0.513932	1.782335E-003	-1.345630
2.311558	0.531655	1.828336E-003	-1.354006
2.309045	0.557211	1.776230E-003	-1.363918
2.306533	0.563701	1.816296E-003	-1.366087
2.304020	0.552280	1.812290E-003	-1.366984
2.301508	0.577813	1.829730E-003	-1.376199
2.298995	0.566234	1.883051E-003	-1.375870
2.296482	0.557330	1.889594E-003	-1.377052
2.293970	0.596856	1.863162E-003	-1.389879
2.291457	0.619340	1.766819E-003	-1.400325
2.288945	0.588646	1.856855E-003	-1.392127
2.286432	0.623579	1.845318E-003	-1.405351
2.283920	0.626072	1.812706E-003	-1.410522
2.281407	0.635217	1.834927E-003	-1.413397
2.278894	0.637561	1.828650E-003	-1.418107
2.276382	0.630140	1.871791E-003	-1.417676
2.273869	0.634296	1.874045E-003	-1.424047
2.271357	0.654227	1.752089E-003	-1.430753
2.268844	0.667582	1.763758E-003	-1.438889
2.266332	0.664164	1.723721E-003	-1.439712
2.263819	0.655108	1.853670E-003	-1.438912
2.261307	0.671531	1.786536E-003	-1.446126
2.258794	0.663318	1.817541E-003	-1.447866
2.256281	0.688982	1.751480E-003	-1.458259
2.253769	0.694652	1.705102E-003	-1.462315
2.251256	0.694741	1.725969E-003	-1.465243
2.248744	0.704811	1.689454E-003	-1.471196
2.246231	0.720248	1.621428E-003	-1.479314
2.243719	0.727711	1.560410E-003	-1.483988
2.241206	0.711798	1.710890E-003	-1.482752
2.238693	0.722881	1.671566E-003	-1.488013
2.236181	0.726707	1.563239E-003	-1.490572
2.233668	0.729956	1.589502E-003	-1.493813
2.231156	0.741110	1.545144E-003	-1.500652
2.228643	0.737222	1.529678E-003	-1.501225
2.226131	0.744669	1.597641E-003	-1.507090
2.223618	0.752814	1.466403E-003	-1.513014
2.221106	0.760119	1.466890E-003	-1.517739
2.218593	0.761981	1.411249E-003	-1.519853
2.216080	0.761129	1.440825E-003	-1.521547
2.213568	0.756597	1.530379E-003	-1.523883
2.211055	0.766010	1.468357E-003	-1.529665
2.208543	0.774133	1.432014E-003	-1.534600
2.206030	0.778446	1.391147E-003	-1.539232
2.203518	0.787798	1.289539E-003	-1.544478
2.201005	0.790173	1.311790E-003	-1.547496
2.198492	0.788005	1.364515E-003	-1.548931
2.195980	0.794429	1.328875E-003	-1.554809
2.193467	0.791470	1.332058E-003	-1.554937
2.190955	0.794941	1.328220E-003	-1.558075
2.188442	0.799185	1.301341E-003	-1.561521
2.185930	0.808273	1.205948E-003	-1.568081
2.183417	0.808915	1.242312E-003	-1.570012
2.180905	0.807073	1.253554E-003	-1.571603
2.178392	0.809682	1.245325E-003	-1.573934
2.175879	0.813243	1.191746E-003	-1.579876
2.173367	0.816614	1.200861E-003	-1.582583
2.170854	0.819094	1.173303E-003	-1.585412
2.168342	0.819784	1.187197E-003	-1.586631
2.165829	0.819572	1.198733E-003	-1.589431
2.163317	0.824188	1.130472E-003	-1.593019
2.160804	0.825964	1.166877E-003	-1.597035
2.158291	0.824867	1.185456E-003	-1.598023
2.155779	0.834004	1.079198E-003	-1.604783
2.153266	0.834567	1.114863E-003	-1.606560
2.150754	0.836965	1.082712E-003	-1.609312
2.148241	0.836538	1.091943E-003	-1.611054
2.145729	0.838988	1.084529E-003	-1.614312
2.143216	0.841576	1.089829E-003	-1.618491
2.140704	0.842550	1.063006E-003	-1.620456
2.138191	0.846533	1.042716E-003	-1.624204
2.135678	0.847659	1.021157E-003	-1.625848
2.133166	0.843548	1.116641E-003	-1.625263
2.130653	0.851568	1.011662E-003	-1.632544
2.128141	0.851136	1.025374E-003	-1.633889
2.125628	0.853402	1.006419E-003	-1.635723
2.123116	0.856361	1.010018E-003	-1.640109
2.120603	0.853722	1.050462E-003	-1.640558
2.118090	0.858552	9.656512E-004	-1.644063
2.115578	0.858428	1.007086E-003	-1.645661
2.113065	0.859556	1.007895E-003	-1.647330
2.110553	0.862658	9.894132E-004	-1.651832
2.108040	0.862433	9.850061E-004	-1.653401
2.105528	0.865585	9.649767E-004	-1.656806
2.103015	0.867919	9.545073E-004	-1.659658
2.100503	0.868411	9.337197E-004	-1.661630
2.097990	0.869595	9.243746E-004	-1.664154
2.095477	0.867740	9.581009E-004	-1.663477
2.092965	0.873993	9.021265E-004	-1.670313
2.090452	0.874520	9.007939E-004	-1.671452
2.087940	0.876097	8.945261E-004	-1.674024
2.085427	0.875849	9.012069E-004	-1.674691
2.082915	0.878158	8.927638E-004	-1.678135
2.080402	0.879241	8.767691E-004	-1.680389
2.077889	0.879437	8.745183E-004	-1.681293
2.075377	0.880062	8.909091E-004	-1.683075
2.072864	0.881738	8.725767E-004	-1.686344
2.070352	0.884221	8.483099E-004	-1.690212
2.067839	0.884107	8.568947E-004	-1.690690
2.065327	0.886027	8.480373E-004	-1.693695
2.062814	0.886411	8.501146E-004	-1.695063
2.060302	0.888061	8.473347E-004	-1.697776
2.057789	0.888469	8.470873E-004	-1.699563
2.055276	0.892033	8.019223E-004	-1.703894
2.052764	0.891289	8.312863E-004	-1.704421
2.050251	0.892971	8.062471E-004	-1.706681
2.047739	0.893692	7.945226E-004	-1.708475
2.045226	0.894807	7.915146E-004	-1.710598
2.042714	0.896577	7.867133E-004	-1.713965
2.040201	0.895868	7.898810E-004	-1.713506
2.037688	0.897060	7.895746E-004	-1.715965
2.035176	0.898455	7.788962E-004	-1.718716
2.032663	0.900131	7.769553E-004	-1.721219
2.030151	0.900269	7.683876E-004	-1.722605
2.027638	0.901838	7.643524E-004	-1.725005
2.025126	0.902693	7.591985E-004	-1.726596
2.022613	0.903567	7.601166E-004	-1.728773
2.020101	0.904299	7.465177E-004	-1.730241
2.017588	0.905087	7.400502E-004	-1.732227
2.015075	0.905315	7.432793E-004	-1.733711
2.012563	0.906747	7.353265E-004	-1.736127
2.010050	0.908635	7.132884E-004	-1.738992
2.007538	0.908790	7.199887E-004	-1.739950
2.005025	0.910020	7.161746E-004	-1.742515
2.002513	0.910290	7.060524E-004	-1.743342
2.000000	0.911613	7.063733E-004	-1.746226
