Temp	Magnetization	Heat capacity	Energy
2.500000	0.046640	5.197434E-005	-1.105600
2.497487	0.048020	5.312887E-005	-1.108391
2.494975	0.048627	5.213445E-005	-1.110879
2.492462	0.048257	5.413776E-005	-1.112526
2.489950	0.052672	5.377687E-005	-1.114392
2.487437	0.051413	5.409250E-005	-1.117044
2.484925	0.055134	5.505736E-005	-1.118901
2.482412	0.055886	5.546285E-005	-1.121557
2.479899	0.053454	5.525760E-005	-1.123362
2.477387	0.050524	5.503003E-005	-1.126273
2.474874	0.058092	5.658134E-005	-1.128324
2.472362	0.055707	5.587817E-005	-1.130828
2.469849	0.056651	5.693976E-005	-1.132744
2.467337	0.056812	5.712053E-005	-1.135460
2.464824	0.056613	5.576581E-005	-1.137109
2.462312	0.056446	5.819812E-005	-1.139975
2.459799	0.055637	5.849115E-005	-1.141914
2.457286	0.055334	5.754605E-005	-1.144500
2.454774	0.057895	5.767561E-005	-1.146580
2.452261	0.059188	5.811720E-005	-1.149642
2.449749	0.057995	5.796073E-005	-1.152218
2.447236	0.056235	5.797734E-005	-1.154319
2.444724	0.063148	6.137268E-005	-1.157666
2.442211	0.061561	6.167383E-005	-1.159758
2.439698	0.059142	5.940840E-005	-1.161385
2.437186	0.061300	6.077582E-005	-1.164498
2.434673	0.063549	6.188028E-005	-1.166780
2.432161	0.071071	6.359037E-005	-1.169783
2.429648	0.070136	6.305383E-005	-1.172391
2.427136	0.067751	6.115913E-005	-1.174402
2.424623	0.067016	6.255719E-005	-1.177197
2.422111	0.072707	6.468368E-005	-1.179618
2.419598	0.073148	6.493350E-005	-1.182856
2.417085	0.069387	6.405738E-005	-1.184988
2.414573	0.071639	6.736012E-005	-1.188488
2.412060	0.075642	6.595006E-005	-1.190902
2.409548	0.073629	6.483959E-005	-1.193589
2.407035	0.074321	6.583424E-005	-1.196450
2.404523	0.078138	6.598898E-005	-1.198755
2.402010	0.075482	6.645675E-005	-1.201663
2.399497	0.076933	6.725730E-005	-1.205232
2.396985	0.088713	6.852239E-005	-1.208212
2.394472	0.088363	6.883362E-005	-1.210765
2.391960	0.084222	7.334097E-005	-1.213744
2.389447	0.083147	6.989825E-005	-1.215566
2.386935	0.083391	7.271174E-005	-1.219451
2.384422	0.086887	7.386632E-005	-1.222339
2.381910	0.093807	7.222249E-005	-1.225077
2.379397	0.088447	7.282312E-005	-1.228150
2.376884	0.087325	7.022265E-005	-1.230394
2.374372	0.094099	7.467683E-005	-1.234298
2.371859	0.099741	7.602748E-005	-1.237070
2.369347	0.101350	7.806108E-005	-1.240481
2.366834	0.096299	7.596898E-005	-1.242616
2.364322	0.097932	8.031055E-005	-1.245409
2.361809	0.098960	7.767328E-005	-1.248859
2.359296	0.120262	7.495874E-005	-1.253141
2.356784	0.099643	7.699503E-005	-1.256081
2.354271	0.116074	7.933853E-005	-1.259973
2.351759	0.135936	7.977508E-005	-1.263181
2.349246	0.114962	8.111808E-005	-1.266850
2.346734	0.130224	8.694760E-005	-1.271528
2.344221	0.123199	8.322326E-005	-1.272139
2.341709	0.128216	8.558753E-005	-1.277459
2.339196	0.121704	8.369311E-005	-1.279592
2.336683	0.156351	9.139239E-005	-1.283138
2.334171	0.148151	8.673496E-005	-1.288821
2.331658	0.130806	8.572408E-005	-1.290681
2.329146	0.149113	9.155170E-005	-1.293793
2.326633	0.162476	1.001611E-004	-1.299964
2.324121	0.156594	9.232725E-005	-1.301927
2.321608	0.172180	9.586728E-005	-1.306231
2.319095	0.142057	9.352742E-005	-1.308618
2.316583	0.167124	9.357142E-005	-1.313466
2.314070	0.161336	9.939085E-005	-1.315305
2.311558	0.256344	1.304729E-004	-1.327843
2.309045	0.171518	1.073619E-004	-1.326116
2.306533	0.206488	1.132988E-004	-1.331804
2.304020	0.265597	1.126518E-004	-1.338274
2.301508	0.264518	1.236922E-004	-1.343462
2.298995	0.241758	1.085998E-004	-1.344418
2.296482	0.283476	1.050411E-004	-1.350930
2.293970	0.369210	1.423824E-004	-1.363657
2.291457	0.284001	1.149517E-004	-1.356357
2.288945	0.409101	1.308231E-004	-1.373171
2.286432	0.406603	1.445324E-004	-1.376457
2.283920	0.411880	1.518052E-004	-1.382727
2.281407	0.428639	1.432043E-004	-1.385914
2.278894	0.379397	1.400943E-004	-1.386077
2.276382	0.488396	1.777613E-004	-1.401130
2.273869	0.514255	1.420504E-004	-1.405663
2.271357	0.571003	1.461902E-004	-1.417744
2.268844	0.471880	1.713034E-004	-1.412042
2.266332	0.481223	1.715324E-004	-1.416774
2.263819	0.597748	1.393050E-004	-1.433010
2.261307	0.622122	1.259335E-004	-1.439276
2.258794	0.648783	1.336408E-004	-1.445650
2.256281	0.659031	1.234857E-004	-1.452179
2.253769	0.647041	1.300046E-004	-1.453361
2.251256	0.667510	1.192651E-004	-1.459016
2.248744	0.670419	1.168801E-004	-1.464589
2.246231	0.690437	1.119742E-004	-1.469831
2.243719	0.709350	1.082885E-004	-1.478996
2.241206	0.697607	1.199107E-004	-1.479146
2.238693	0.721972	1.004533E-004	-1.487516
2.236181	0.715020	1.109135E-004	-1.488517
2.233668	0.724701	1.023686E-004	-1.494810
2.231156	0.734495	1.018984E-004	-1.498694
2.228643	0.740000	1.025853E-004	-1.503691
2.226131	0.738376	1.016123E-004	-1.505914
2.223618	0.746431	1.001935E-004	-1.510427
2.221106	0.755335	9.318774E-005	-1.516127
2.218593	0.756009	9.672943E-005	-1.519174
2.216080	0.760312	9.075850E-005	-1.522846
2.213568	0.765676	8.933220E-005	-1.526571
2.211055	0.769863	9.636767E-005	-1.530619
2.208543	0.773671	9.012422E-005	-1.533972
2.206030	0.776315	8.907845E-005	-1.537744
2.203518	0.781883	8.947576E-005	-1.542169
2.201005	0.782792	8.804563E-005	-1.544809
2.198492	0.790654	8.289153E-005	-1.550328
2.195980	0.789223	8.625611E-005	-1.551806
2.193467	0.794402	8.485273E-005	-1.556054
2.190955	0.796771	8.321772E-005	-1.559284
2.188442	0.797331	8.324659E-005	-1.561780
2.185930	0.801357	7.833802E-005	-1.565361
2.183417	0.803802	7.928784E-005	-1.568481
2.180905	0.806181	8.017954E-005	-1.571469
2.178392	0.811075	7.995356E-005	-1.575873
2.175879	0.811924	7.453053E-005	-1.578399
2.173367	0.812474	7.783219E-005	-1.580470
2.170854	0.817147	7.594050E-005	-1.584843
2.168342	0.820168	7.409309E-005	-1.587796
2.165829	0.824017	7.081315E-005	-1.591872
2.163317	0.825855	7.170952E-005	-1.594818
2.160804	0.825976	7.104350E-005	-1.596276
2.158291	0.829361	7.258048E-005	-1.600418
2.155779	0.831148	7.253052E-005	-1.603089
2.153266	0.833442	7.157460E-005	-1.606010
2.150754	0.834873	7.083087E-005	-1.608785
2.148241	0.837452	7.073149E-005	-1.611933
2.145729	0.839476	6.857286E-005	-1.614623
2.143216	0.841767	6.687425E-005	-1.618046
2.140704	0.842071	6.654534E-005	-1.619697
2.138191	0.844243	6.571027E-005	-1.622659
2.135678	0.845832	6.733930E-005	-1.625307
2.133166	0.847818	6.547718E-005	-1.627840
2.130653	0.849585	6.447491E-005	-1.630829
2.128141	0.851393	6.548763E-005	-1.633487
2.125628	0.852641	6.224770E-005	-1.636009
2.123116	0.855101	6.326107E-005	-1.638731
2.120603	0.856016	6.249294E-005	-1.641193
2.118090	0.858042	6.166608E-005	-1.644213
2.115578	0.858748	6.214102E-005	-1.645914
2.113065	0.861405	6.168198E-005	-1.649264
2.110553	0.862699	6.152382E-005	-1.651758
2.108040	0.864280	6.126953E-005	-1.654345
2.105528	0.866532	5.984057E-005	-1.657524
2.103015	0.866884	5.963130E-005	-1.659087
2.100503	0.868281	6.048424E-005	-1.661517
2.097990	0.869855	5.875990E-005	-1.664047
2.095477	0.871017	5.804131E-005	-1.666280
2.092965	0.872558	5.675774E-005	-1.668844
2.090452	0.874325	5.690213E-005	-1.671365
2.087940	0.875010	5.623749E-005	-1.673304
2.085427	0.876249	5.534454E-005	-1.675565
2.082915	0.877471	5.664317E-005	-1.677989
2.080402	0.878895	5.574024E-005	-1.680196
2.077889	0.880045	5.520422E-005	-1.682474
2.075377	0.881627	5.459014E-005	-1.685156
2.072864	0.882251	5.451325E-005	-1.686836
2.070352	0.883647	5.365123E-005	-1.689188
2.067839	0.884781	5.267342E-005	-1.691405
2.065327	0.885663	5.325971E-005	-1.693423
2.062814	0.886923	5.299197E-005	-1.695783
2.060302	0.888208	5.253622E-005	-1.697939
2.057789	0.889252	5.104982E-005	-1.700187
2.055276	0.890607	5.145743E-005	-1.702487
2.052764	0.891794	5.051929E-005	-1.704588
2.050251	0.892227	5.076823E-005	-1.706045
2.047739	0.893500	5.065056E-005	-1.708488
2.045226	0.894787	4.979759E-005	-1.710739
2.042714	0.895718	4.964567E-005	-1.712645
2.040201	0.896955	4.977736E-005	-1.715076
2.037688	0.897591	4.961643E-005	-1.716602
2.035176	0.898627	4.818227E-005	-1.718734
2.032663	0.899773	4.896152E-005	-1.720829
2.030151	0.900527	4.761607E-005	-1.722628
2.027638	0.901611	4.747277E-005	-1.724692
2.025126	0.902130	4.821172E-005	-1.726245
2.022613	0.903584	4.673593E-005	-1.728821
2.020101	0.904416	4.680257E-005	-1.730603
2.017588	0.905220	4.681340E-005	-1.732468
2.015075	0.905979	4.700743E-005	-1.734190
2.012563	0.907002	4.596710E-005	-1.736234
2.010050	0.907780	4.564568E-005	-1.737892
2.007538	0.908755	4.533776E-005	-1.739937
2.005025	0.909490	4.455088E-005	-1.741737
2.002513	0.910226	4.433803E-005	-1.743475
2.000000	0.911205	4.424085E-005	-1.745448
