Temp	Magnetization	Heat capacity	Energy
10.000000	0.023505	1.218237E-005	-0.427718
9.954774	0.023438	1.220074E-005	-0.430493
9.909548	0.023720	1.244480E-005	-0.432779
9.864322	0.023851	1.241972E-005	-0.434929
9.819095	0.024067	1.289624E-005	-0.437949
9.773869	0.024158	1.295197E-005	-0.439374
9.728643	0.024490	1.300802E-005	-0.441711
9.683417	0.024336	1.335770E-005	-0.444829
9.638191	0.024564	1.367985E-005	-0.447149
9.592965	0.024875	1.360550E-005	-0.449938
9.547739	0.024999	1.367627E-005	-0.452308
9.502513	0.025222	1.390578E-005	-0.454980
9.457286	0.025419	1.411618E-005	-0.457161
9.412060	0.025643	1.431931E-005	-0.459771
9.366834	0.025773	1.443626E-005	-0.462811
9.321608	0.025638	1.465258E-005	-0.465091
9.276382	0.026192	1.498967E-005	-0.468452
9.231156	0.025863	1.490632E-005	-0.470622
9.185930	0.026410	1.551709E-005	-0.473644
9.140704	0.026147	1.578899E-005	-0.476282
9.095477	0.026937	1.574496E-005	-0.479464
9.050251	0.027003	1.603750E-005	-0.482691
9.005025	0.027060	1.641027E-005	-0.484988
8.959799	0.027218	1.660228E-005	-0.488362
8.914573	0.027590	1.678061E-005	-0.491407
8.869347	0.028192	1.702202E-005	-0.494566
8.824121	0.028198	1.713771E-005	-0.497793
8.778894	0.028334	1.751926E-005	-0.500459
8.733668	0.028749	1.772177E-005	-0.504360
8.688442	0.028945	1.807938E-005	-0.507594
8.643216	0.029080	1.822898E-005	-0.510352
8.597990	0.029782	1.879568E-005	-0.514189
8.552764	0.029305	1.896337E-005	-0.517517
8.507538	0.030044	1.930518E-005	-0.521269
8.462312	0.030311	1.960701E-005	-0.525032
8.417085	0.030960	1.983760E-005	-0.528336
8.371859	0.031766	2.061687E-005	-0.532822
8.326633	0.031315	2.080549E-005	-0.535760
8.281407	0.032347	2.082703E-005	-0.539981
8.236181	0.032469	2.106707E-005	-0.543269
8.190955	0.032928	2.192379E-005	-0.547593
8.145729	0.032751	2.194244E-005	-0.551332
8.100503	0.033874	2.266217E-005	-0.556610
8.055276	0.034066	2.296947E-005	-0.559925
8.010050	0.034719	2.350465E-005	-0.564367
7.964824	0.035494	2.394000E-005	-0.569172
7.919598	0.036699	2.459158E-005	-0.573894
7.874372	0.036770	2.497121E-005	-0.578300
7.829146	0.036763	2.596002E-005	-0.582272
7.783920	0.037748	2.602888E-005	-0.587826
7.738693	0.039158	2.698152E-005	-0.592764
7.693467	0.039519	2.722112E-005	-0.597952
7.648241	0.039913	2.781565E-005	-0.602596
7.603015	0.041148	2.887392E-005	-0.608257
7.557789	0.041290	3.009180E-005	-0.613536
7.512563	0.044112	3.085710E-005	-0.619879
7.467337	0.044205	3.119589E-005	-0.624042
7.422111	0.045372	3.229835E-005	-0.629675
7.376884	0.047628	3.318290E-005	-0.637298
7.331658	0.049654	3.565293E-005	-0.644305
7.286432	0.052254	3.694843E-005	-0.650121
7.241206	0.051672	3.745479E-005	-0.656011
7.195980	0.057096	4.048798E-005	-0.664199
7.150754	0.055547	4.098876E-005	-0.670943
7.105528	0.061087	4.488740E-005	-0.679532
7.060302	0.065133	4.607003E-005	-0.688554
7.015075	0.067294	5.088939E-005	-0.695583
6.969849	0.074811	5.645857E-005	-0.707675
6.924623	0.084600	6.823556E-005	-0.720155
6.879397	0.088581	7.175522E-005	-0.729175
6.834171	0.099462	8.853451E-005	-0.745895
6.788945	0.116336	1.232608E-004	-0.765885
6.743719	0.132438	1.489877E-004	-0.787182
6.698492	0.155309	2.027549E-004	-0.814875
6.653266	0.187712	2.863182E-004	-0.857429
6.608040	0.244075	4.267200E-004	-0.930367
6.562814	0.299509	5.015090E-004	-1.012178
6.517588	0.351282	4.994794E-004	-1.096700
6.472362	0.400724	4.819196E-004	-1.195143
6.427136	0.436409	4.621884E-004	-1.278093
6.381910	0.468518	4.215387E-004	-1.359171
6.336683	0.496335	3.959290E-004	-1.436719
6.291457	0.520671	4.068632E-004	-1.510925
6.246231	0.545165	4.052644E-004	-1.588055
6.201005	0.564553	3.752317E-004	-1.653957
6.155779	0.586298	3.686279E-004	-1.729691
6.110553	0.604780	3.608807E-004	-1.797545
6.065327	0.620945	3.446988E-004	-1.859545
6.020101	0.637555	3.429120E-004	-1.924922
5.974874	0.652038	3.281016E-004	-1.984076
5.929648	0.666368	3.232195E-004	-2.043914
5.884422	0.679864	3.223173E-004	-2.102317
5.839196	0.693254	3.139442E-004	-2.161185
5.793970	0.705775	3.003373E-004	-2.217917
5.748744	0.716925	2.943469E-004	-2.269988
5.703518	0.728799	2.868550E-004	-2.326239
5.658291	0.739727	2.870685E-004	-2.378996
5.613065	0.750511	2.735631E-004	-2.432250
5.567839	0.759917	2.675455E-004	-2.479436
5.522613	0.769199	2.610188E-004	-2.527194
5.477387	0.778976	2.531969E-004	-2.577788
5.432161	0.787638	2.522291E-004	-2.623822
5.386935	0.796253	2.467874E-004	-2.669995
5.341709	0.804267	2.353098E-004	-2.713358
5.296482	0.812548	2.300321E-004	-2.759336
5.251256	0.820039	2.249186E-004	-2.801291
5.206030	0.827695	2.241173E-004	-2.844815
5.160804	0.834402	2.178906E-004	-2.883391
5.115578	0.841224	2.090441E-004	-2.923272
5.070352	0.847726	2.027848E-004	-2.961584
5.025126	0.854363	2.002413E-004	-3.000831
4.979899	0.860198	1.954951E-004	-3.036228
4.934673	0.865928	1.937336E-004	-3.071046
4.889447	0.871937	1.897026E-004	-3.107852
4.844221	0.877506	1.776316E-004	-3.142551
4.798995	0.882530	1.747729E-004	-3.173994
4.753769	0.887616	1.693619E-004	-3.206225
4.708543	0.892667	1.690187E-004	-3.238550
4.663317	0.897586	1.624366E-004	-3.270057
4.618090	0.902177	1.572805E-004	-3.299907
4.572864	0.906277	1.583600E-004	-3.326771
4.527638	0.910737	1.489835E-004	-3.356187
4.482412	0.915060	1.458526E-004	-3.384849
4.437186	0.918905	1.424142E-004	-3.410537
4.391960	0.922754	1.423413E-004	-3.436534
4.346734	0.926338	1.355139E-004	-3.460816
4.301508	0.930106	1.318024E-004	-3.486568
4.256281	0.933571	1.258310E-004	-3.510327
4.211055	0.937012	1.202381E-004	-3.534121
4.165829	0.940036	1.182322E-004	-3.555202
4.120603	0.943085	1.142280E-004	-3.576544
4.075377	0.946006	1.095462E-004	-3.597152
4.030151	0.948989	1.071919E-004	-3.618187
3.984925	0.951632	1.031597E-004	-3.636989
3.939698	0.954213	1.000184E-004	-3.655450
3.894472	0.956741	9.797546E-005	-3.673563
3.849246	0.959165	9.368929E-005	-3.691066
3.804020	0.961588	8.912950E-005	-3.708681
3.758794	0.963768	8.513480E-005	-3.724540
3.713568	0.965958	8.264414E-005	-3.740548
3.668342	0.968025	7.968273E-005	-3.755818
3.623116	0.969956	7.623454E-005	-3.770066
3.577889	0.971820	7.403312E-005	-3.783816
3.532663	0.973673	7.022868E-005	-3.797592
3.487437	0.975330	6.789866E-005	-3.809989
3.442211	0.976943	6.436197E-005	-3.822038
3.396985	0.978520	6.243667E-005	-3.833932
3.351759	0.979983	5.871916E-005	-3.844934
3.306533	0.981432	5.603458E-005	-3.855915
3.261307	0.982714	5.482839E-005	-3.865637
3.216080	0.984059	5.049382E-005	-3.875904
3.170854	0.985252	4.764719E-005	-3.884981
3.125628	0.986369	4.576306E-005	-3.893554
3.080402	0.987461	4.268858E-005	-3.901914
3.035176	0.988449	4.093323E-005	-3.909527
2.989950	0.989358	3.920680E-005	-3.916546
2.944724	0.990268	3.616370E-005	-3.923560
2.899497	0.991121	3.411569E-005	-3.930183
2.854271	0.991942	3.237308E-005	-3.936567
2.809045	0.992647	3.011864E-005	-3.942061
2.763819	0.993368	2.764269E-005	-3.947682
2.718593	0.994008	2.612807E-005	-3.952685
2.673367	0.994592	2.387643E-005	-3.957257
2.628141	0.995155	2.234280E-005	-3.961669
2.582915	0.995655	2.088570E-005	-3.965586
2.537688	0.996130	1.904798E-005	-3.969328
2.492462	0.996568	1.744777E-005	-3.972772
2.447236	0.996978	1.607368E-005	-3.976005
2.402010	0.997334	1.484726E-005	-3.978826
2.356784	0.997657	1.346798E-005	-3.981378
2.311558	0.997956	1.213173E-005	-3.983740
2.266332	0.998206	1.130908E-005	-3.985719
2.221106	0.998471	9.820025E-006	-3.987823
2.175879	0.998680	8.834266E-006	-3.989486
2.130653	0.998882	7.799689E-006	-3.991086
2.085427	0.999048	6.839615E-006	-3.992407
2.040201	0.999200	6.037229E-006	-3.993620
1.994975	0.999334	5.244965E-006	-3.994681
1.949749	0.999448	4.624365E-006	-3.995593
1.904523	0.999544	3.965164E-006	-3.996357
1.859296	0.999635	3.307123E-006	-3.997082
1.814070	0.999705	2.804949E-006	-3.997645
1.768844	0.999760	2.428144E-006	-3.998083
1.723618	0.999813	2.005267E-006	-3.998504
1.678392	0.999852	1.655515E-006	-3.998818
1.633166	0.999887	1.327137E-006	-3.999097
1.587940	0.999916	1.055505E-006	-3.999328
1.542714	0.999937	8.266154E-007	-3.999493
1.497487	0.999954	6.369197E-007	-3.999633
1.452261	0.999967	4.971220E-007	-3.999733
1.407035	0.999976	3.736036E-007	-3.999812
1.361809	0.999985	2.432384E-007	-3.999884
1.316583	0.999990	1.905960E-007	-3.999916
1.271357	0.999993	1.402693E-007	-3.999942
1.226131	0.999995	1.029872E-007	-3.999960
1.180905	0.999998	4.869141E-008	-3.999983
1.135678	0.999999	3.244487E-008	-3.999989
1.090452	0.999999	2.011519E-008	-3.999994
1.045226	1.000000	1.255888E-008	-3.999996
1.000000	1.000000	3.356195E-009	-3.999999
