Temp	Magnetization	Heat capacity	Energy
2.200000	0.805863	1.732060E-002	-1.543318
2.201508	0.804894	1.735373E-002	-1.541645
2.203015	0.803922	1.738657E-002	-1.539970
2.204523	0.802946	1.741912E-002	-1.538290
2.206030	0.801967	1.745138E-002	-1.536608
2.207538	0.800985	1.748333E-002	-1.534923
2.209045	0.799999	1.751499E-002	-1.533235
2.210553	0.799011	1.754634E-002	-1.531543
2.212060	0.798019	1.757738E-002	-1.529849
2.213568	0.797024	1.760811E-002	-1.528151
2.215075	0.796026	1.763852E-002	-1.526451
2.216583	0.795025	1.766862E-002	-1.524748
2.218090	0.794021	1.769840E-002	-1.523042
2.219598	0.793014	1.772786E-002	-1.521333
2.221106	0.792004	1.775699E-002	-1.519621
2.222613	0.790990	1.778579E-002	-1.517906
2.224121	0.789974	1.781426E-002	-1.516189
2.225628	0.788954	1.784239E-002	-1.514469
2.227136	0.787932	1.787019E-002	-1.512746
2.228643	0.786906	1.789765E-002	-1.511020
2.230151	0.785878	1.792476E-002	-1.509292
2.231658	0.784847	1.795153E-002	-1.507562
2.233166	0.783812	1.797795E-002	-1.505828
2.234673	0.782775	1.800402E-002	-1.504092
2.236181	0.781735	1.802974E-002	-1.502354
2.237688	0.780692	1.805510E-002	-1.500613
2.239196	0.779646	1.808011E-002	-1.498870
2.240704	0.778598	1.810475E-002	-1.497125
2.242211	0.777546	1.812903E-002	-1.495377
2.243719	0.776492	1.815295E-002	-1.493626
2.245226	0.775435	1.817649E-002	-1.491874
2.246734	0.774376	1.819967E-002	-1.490119
2.248241	0.773313	1.822248E-002	-1.488362
2.249749	0.772248	1.824491E-002	-1.486603
2.251256	0.771180	1.826696E-002	-1.484841
2.252764	0.770110	1.828864E-002	-1.483078
2.254271	0.769037	1.830994E-002	-1.481312
2.255779	0.767961	1.833085E-002	-1.479545
2.257286	0.766883	1.835138E-002	-1.477775
2.258794	0.765803	1.837152E-002	-1.476003
2.260302	0.764719	1.839128E-002	-1.474230
2.261809	0.763634	1.841065E-002	-1.472455
2.263317	0.762545	1.842962E-002	-1.470677
2.264824	0.761455	1.844820E-002	-1.468898
2.266332	0.760361	1.846639E-002	-1.467117
2.267839	0.759266	1.848418E-002	-1.465335
2.269347	0.758168	1.850157E-002	-1.463551
2.270854	0.757068	1.851856E-002	-1.461765
2.272362	0.755965	1.853515E-002	-1.459977
2.273869	0.754860	1.855134E-002	-1.458188
2.275377	0.753753	1.856713E-002	-1.456397
2.276884	0.752644	1.858251E-002	-1.454605
2.278392	0.751532	1.859749E-002	-1.452812
2.279899	0.750418	1.861205E-002	-1.451017
2.281407	0.749302	1.862621E-002	-1.449220
2.282915	0.748184	1.863996E-002	-1.447423
2.284422	0.747064	1.865330E-002	-1.445623
2.285930	0.745942	1.866623E-002	-1.443823
2.287437	0.744817	1.867875E-002	-1.442022
2.288945	0.743691	1.869085E-002	-1.440219
2.290452	0.742562	1.870254E-002	-1.438415
2.291960	0.741432	1.871381E-002	-1.436610
2.293467	0.740300	1.872467E-002	-1.434804
2.294975	0.739165	1.873512E-002	-1.432997
2.296482	0.738029	1.874514E-002	-1.431189
2.297990	0.736891	1.875475E-002	-1.429380
2.299497	0.735752	1.876394E-002	-1.427570
2.301005	0.734610	1.877272E-002	-1.425759
2.302513	0.733467	1.878107E-002	-1.423947
2.304020	0.732321	1.878901E-002	-1.422135
2.305528	0.731175	1.879653E-002	-1.420322
2.307035	0.730026	1.880363E-002	-1.418508
2.308543	0.728876	1.881031E-002	-1.416693
2.310050	0.727724	1.881657E-002	-1.414878
2.311558	0.726571	1.882241E-002	-1.413062
2.313065	0.725416	1.882784E-002	-1.411246
2.314573	0.724259	1.883284E-002	-1.409429
2.316080	0.723101	1.883742E-002	-1.407612
2.317588	0.721942	1.884159E-002	-1.405794
2.319095	0.720781	1.884534E-002	-1.403976
2.320603	0.719619	1.884866E-002	-1.402158
2.322111	0.718455	1.885158E-002	-1.400339
2.323618	0.717290	1.885407E-002	-1.398520
2.325126	0.716124	1.885614E-002	-1.396701
2.326633	0.714956	1.885780E-002	-1.394881
2.328141	0.713787	1.885905E-002	-1.393062
2.329648	0.712617	1.885988E-002	-1.391242
2.331156	0.711446	1.886029E-002	-1.389423
2.332663	0.710274	1.886029E-002	-1.387603
2.334171	0.709100	1.885988E-002	-1.385783
2.335678	0.707926	1.885905E-002	-1.383964
2.337186	0.706750	1.885781E-002	-1.382144
2.338693	0.705573	1.885616E-002	-1.380325
2.340201	0.704395	1.885411E-002	-1.378506
2.341709	0.703217	1.885164E-002	-1.376687
2.343216	0.702037	1.884876E-002	-1.374868
2.344724	0.700857	1.884548E-002	-1.373049
2.346231	0.699675	1.884180E-002	-1.371231
2.347739	0.698493	1.883771E-002	-1.369414
2.349246	0.697310	1.883321E-002	-1.367596
2.350754	0.696126	1.882832E-002	-1.365780
2.352261	0.694941	1.882303E-002	-1.363963
2.353769	0.693756	1.881733E-002	-1.362147
2.355276	0.692570	1.881124E-002	-1.360332
2.356784	0.691383	1.880475E-002	-1.358517
2.358291	0.690196	1.879787E-002	-1.356703
2.359799	0.689008	1.879060E-002	-1.354890
2.361307	0.687820	1.878294E-002	-1.353078
2.362814	0.686631	1.877488E-002	-1.351266
2.364322	0.685441	1.876644E-002	-1.349455
2.365829	0.684251	1.875761E-002	-1.347644
2.367337	0.683061	1.874840E-002	-1.345835
2.368844	0.681870	1.873880E-002	-1.344027
2.370352	0.680679	1.872883E-002	-1.342219
2.371859	0.679488	1.871847E-002	-1.340413
2.373367	0.678296	1.870774E-002	-1.338607
2.374874	0.677104	1.869664E-002	-1.336803
2.376382	0.675912	1.868516E-002	-1.334999
2.377889	0.674719	1.867331E-002	-1.333197
2.379397	0.673526	1.866110E-002	-1.331396
2.380905	0.672334	1.864851E-002	-1.329596
2.382412	0.671141	1.863557E-002	-1.327798
2.383920	0.669948	1.862226E-002	-1.326000
2.385427	0.668754	1.860859E-002	-1.324204
2.386935	0.667561	1.859456E-002	-1.322410
2.388442	0.666368	1.858018E-002	-1.320616
2.389950	0.665175	1.856544E-002	-1.318824
2.391457	0.663982	1.855036E-002	-1.317034
2.392965	0.662789	1.853492E-002	-1.315245
2.394472	0.661596	1.851914E-002	-1.313457
2.395980	0.660403	1.850302E-002	-1.311671
2.397487	0.659211	1.848656E-002	-1.309887
2.398995	0.658019	1.846976E-002	-1.308104
2.400503	0.656826	1.845262E-002	-1.306323
2.402010	0.655635	1.843515E-002	-1.304543
2.403518	0.654443	1.841735E-002	-1.302765
2.405025	0.653252	1.839922E-002	-1.300989
2.406533	0.652061	1.838076E-002	-1.299215
2.408040	0.650871	1.836199E-002	-1.297442
2.409548	0.649681	1.834289E-002	-1.295672
2.411055	0.648491	1.832347E-002	-1.293903
2.412563	0.647302	1.830374E-002	-1.292136
2.414070	0.646113	1.828370E-002	-1.290371
2.415578	0.644925	1.826335E-002	-1.288608
2.417085	0.643738	1.824270E-002	-1.286847
2.418593	0.642551	1.822174E-002	-1.285088
2.420101	0.641365	1.820048E-002	-1.283331
2.421608	0.640179	1.817892E-002	-1.281576
2.423116	0.638994	1.815707E-002	-1.279823
2.424623	0.637810	1.813492E-002	-1.278072
2.426131	0.636626	1.811249E-002	-1.276323
2.427638	0.635443	1.808977E-002	-1.274577
2.429146	0.634261	1.806676E-002	-1.272833
2.430653	0.633080	1.804348E-002	-1.271091
2.432161	0.631899	1.801992E-002	-1.269351
2.433668	0.630720	1.799608E-002	-1.267613
2.435176	0.629541	1.797197E-002	-1.265878
2.436683	0.628363	1.794760E-002	-1.264146
2.438191	0.627186	1.792295E-002	-1.262415
2.439698	0.626010	1.789805E-002	-1.260687
2.441206	0.624835	1.787289E-002	-1.258961
2.442714	0.623661	1.784747E-002	-1.257238
2.444221	0.622488	1.782179E-002	-1.255517
2.445729	0.621317	1.779587E-002	-1.253799
2.447236	0.620146	1.776969E-002	-1.252084
2.448744	0.618976	1.774328E-002	-1.250370
2.450251	0.617808	1.771662E-002	-1.248660
2.451759	0.616640	1.768972E-002	-1.246952
2.453266	0.615474	1.766259E-002	-1.245246
2.454774	0.614309	1.763523E-002	-1.243543
2.456281	0.613145	1.760764E-002	-1.241843
2.457789	0.611983	1.757982E-002	-1.240146
2.459296	0.610821	1.755178E-002	-1.238451
2.460804	0.609661	1.752351E-002	-1.236759
2.462312	0.608503	1.749504E-002	-1.235070
2.463819	0.607345	1.746634E-002	-1.233383
2.465327	0.606189	1.743744E-002	-1.231699
2.466834	0.605035	1.740833E-002	-1.230018
2.468342	0.603882	1.737901E-002	-1.228340
2.469849	0.602730	1.734950E-002	-1.226665
2.471357	0.601580	1.731978E-002	-1.224992
2.472864	0.600431	1.728987E-002	-1.223323
2.474372	0.599283	1.725977E-002	-1.221656
2.475879	0.598138	1.722947E-002	-1.219992
2.477387	0.596993	1.719899E-002	-1.218331
2.478894	0.595851	1.716833E-002	-1.216673
2.480402	0.594709	1.713749E-002	-1.215018
2.481910	0.593570	1.710647E-002	-1.213366
2.483417	0.592432	1.707527E-002	-1.211717
2.484925	0.591295	1.704391E-002	-1.210071
2.486432	0.590161	1.701237E-002	-1.208428
2.487940	0.589028	1.698068E-002	-1.206789
2.489447	0.587896	1.694881E-002	-1.205152
2.490955	0.586767	1.691679E-002	-1.203518
2.492462	0.585639	1.688462E-002	-1.201887
2.493970	0.584512	1.685229E-002	-1.200260
2.495477	0.583388	1.681981E-002	-1.198636
2.496985	0.582265	1.678718E-002	-1.197014
2.498492	0.581144	1.675441E-002	-1.195396
2.500000	0.580025	1.672149E-002	-1.193781
