Temp	Magnetization	Heat capacity	Energy
1.000000	0.999234	2.421733E-005	-1.997003
1.035176	0.998982	3.006849E-005	-1.996028
1.070352	0.998669	3.674328E-005	-1.994827
1.105528	0.998288	4.423657E-005	-1.993371
1.140704	0.997829	5.252041E-005	-1.991631
1.175879	0.997285	6.154860E-005	-1.989579
1.211055	0.996647	7.126455E-005	-1.987189
1.246231	0.995907	8.161112E-005	-1.984437
1.281407	0.995057	9.254469E-005	-1.981303
1.316583	0.994089	1.040631E-004	-1.977763
1.351759	0.992993	1.162542E-004	-1.973798
1.386935	0.991759	1.293530E-004	-1.969378
1.422111	0.990371	1.437607E-004	-1.964464
1.457286	0.988809	1.599834E-004	-1.958999
1.492462	0.987044	1.785027E-004	-1.952911
1.527638	0.985043	1.996793E-004	-1.946108
1.562814	0.982765	2.237793E-004	-1.938491
1.597990	0.980163	2.510458E-004	-1.929949
1.633166	0.977184	2.815620E-004	-1.920366
1.668342	0.973775	3.148039E-004	-1.909632
1.703518	0.969888	3.493196E-004	-1.897672
1.738693	0.965497	3.832465E-004	-1.884474
1.773869	0.960592	4.156133E-004	-1.870082
1.809045	0.955160	4.472241E-004	-1.854543
1.844221	0.949157	4.802672E-004	-1.837847
1.879397	0.942490	5.174516E-004	-1.819895
1.914573	0.934996	5.616816E-004	-1.800485
1.949749	0.926429	6.155574E-004	-1.779315
1.984925	0.916469	6.797361E-004	-1.756015
2.020101	0.904742	7.518643E-004	-1.730250
2.055276	0.890814	8.289237E-004	-1.701793
2.090452	0.874079	9.118925E-004	-1.670466
2.125628	0.853511	1.008151E-003	-1.635943
2.160804	0.827307	1.129463E-003	-1.597538
2.195980	0.792391	1.285898E-003	-1.554150
2.231156	0.743955	1.477328E-003	-1.504474
2.266332	0.676043	1.680679E-003	-1.447556
2.301508	0.586019	1.816283E-003	-1.384184
2.336683	0.482854	1.771233E-003	-1.318943
2.371859	0.385649	1.559506E-003	-1.258644
2.407035	0.308136	1.312981E-003	-1.206980
2.442211	0.251920	1.111023E-003	-1.163491
2.477387	0.212438	9.610179E-004	-1.126313
2.512563	0.184533	8.510965E-004	-1.093779
2.547739	0.164273	7.703394E-004	-1.064650
2.582915	0.149029	7.097001E-004	-1.038042
2.618090	0.137145	6.617979E-004	-1.013371
2.653266	0.127601	6.215465E-004	-0.990276
2.688442	0.119758	5.862066E-004	-0.968536
2.723618	0.113197	5.546789E-004	-0.948000
2.758794	0.107614	5.266009E-004	-0.928536
2.793970	0.102778	5.017035E-004	-0.910025
2.829146	0.098512	4.795442E-004	-0.892360
2.864322	0.094686	4.595125E-004	-0.875453
2.899497	0.091211	4.409589E-004	-0.859239
2.934673	0.088035	4.233340E-004	-0.843675
2.969849	0.085124	4.062816E-004	-0.828735
3.005025	0.082460	3.896652E-004	-0.814401
3.040201	0.080026	3.735340E-004	-0.800658
3.075377	0.077803	3.580515E-004	-0.787484
3.110553	0.075772	3.434150E-004	-0.774853
3.145729	0.073910	3.297895E-004	-0.762732
3.180905	0.072194	3.172693E-004	-0.751082
3.216080	0.070605	3.058669E-004	-0.739863
3.251256	0.069123	2.955224E-004	-0.729035
3.286432	0.067735	2.861245E-004	-0.718562
3.321608	0.066429	2.775333E-004	-0.708412
3.356784	0.065196	2.696024E-004	-0.698560
3.391960	0.064031	2.621944E-004	-0.688984
3.427136	0.062928	2.551926E-004	-0.679667
3.462312	0.061883	2.485063E-004	-0.670596
3.497487	0.060894	2.420726E-004	-0.661761
3.532663	0.059956	2.358533E-004	-0.653154
3.567839	0.059066	2.298302E-004	-0.644768
3.603015	0.058221	2.239991E-004	-0.636595
3.638191	0.057418	2.183626E-004	-0.628629
3.673367	0.056652	2.129249E-004	-0.620862
3.708543	0.055920	2.076874E-004	-0.613287
3.743719	0.055220	2.026459E-004	-0.605898
3.778894	0.054549	1.977903E-004	-0.598686
3.814070	0.053903	1.931046E-004	-0.591647
3.849246	0.053282	1.885697E-004	-0.584773
3.884422	0.052684	1.841644E-004	-0.578061
3.919598	0.052106	1.798685E-004	-0.571505
3.954774	0.051549	1.756644E-004	-0.565102
3.989950	0.051012	1.715388E-004	-0.558849
4.025126	0.050494	1.674829E-004	-0.552743
4.060302	0.049994	1.634931E-004	-0.546783
4.095477	0.049513	1.595701E-004	-0.540964
4.130653	0.049049	1.557185E-004	-0.535286
4.165829	0.048604	1.519454E-004	-0.529745
4.201005	0.048175	1.482596E-004	-0.524339
4.236181	0.047764	1.446703E-004	-0.519064
4.271357	0.047370	1.411865E-004	-0.513916
4.306533	0.046992	1.378159E-004	-0.508891
4.341709	0.046630	1.345650E-004	-0.503986
4.376884	0.046284	1.314381E-004	-0.499196
4.412060	0.045952	1.284380E-004	-0.494516
4.447236	0.045636	1.255654E-004	-0.489941
4.482412	0.045333	1.228194E-004	-0.485468
4.517588	0.045043	1.201974E-004	-0.481092
4.552764	0.044766	1.176960E-004	-0.476808
4.587940	0.044502	1.153104E-004	-0.472612
4.623116	0.044249	1.130354E-004	-0.468500
4.658291	0.044007	1.108651E-004	-0.464467
4.693467	0.043776	1.087934E-004	-0.460512
4.728643	0.043554	1.068141E-004	-0.456629
4.763819	0.043342	1.049211E-004	-0.452816
4.798995	0.043138	1.031083E-004	-0.449069
4.834171	0.042942	1.013698E-004	-0.445387
4.869347	0.042753	9.970011E-005	-0.441766
4.904523	0.042571	9.809394E-005	-0.438204
4.939698	0.042395	9.654635E-005	-0.434698
4.974874	0.042225	9.505273E-005	-0.431248
5.010050	0.042060	9.360883E-005	-0.427850
5.045226	0.041899	9.221070E-005	-0.424504
5.080402	0.041743	9.085473E-005	-0.421207
5.115578	0.041589	8.953759E-005	-0.417958
5.150754	0.041440	8.825625E-005	-0.414756
5.185930	0.041293	8.700797E-005	-0.411600
5.221106	0.041148	8.579022E-005	-0.408488
5.256281	0.041006	8.460073E-005	-0.405419
5.291457	0.040865	8.343747E-005	-0.402393
5.326633	0.040726	8.229857E-005	-0.399408
5.361809	0.040589	8.118237E-005	-0.396464
5.396985	0.040452	8.008739E-005	-0.393559
5.432161	0.040317	7.901229E-005	-0.390694
5.467337	0.040183	7.795589E-005	-0.387867
5.502513	0.040050	7.691713E-005	-0.385078
5.537688	0.039917	7.589510E-005	-0.382325
5.572864	0.039786	7.488896E-005	-0.379610
5.608040	0.039655	7.389799E-005	-0.376930
5.643216	0.039524	7.292158E-005	-0.374286
5.678392	0.039395	7.195917E-005	-0.371677
5.713568	0.039266	7.101029E-005	-0.369102
5.748744	0.039138	7.007453E-005	-0.366561
5.783920	0.039011	6.915153E-005	-0.364054
5.819095	0.038884	6.824100E-005	-0.361579
5.854271	0.038759	6.734269E-005	-0.359137
5.889447	0.038634	6.645637E-005	-0.356728
5.924623	0.038511	6.558186E-005	-0.354350
5.959799	0.038388	6.471902E-005	-0.352003
5.994975	0.038266	6.386771E-005	-0.349687
6.030151	0.038146	6.302783E-005	-0.347402
6.065327	0.038026	6.219929E-005	-0.345147
6.100503	0.037908	6.138202E-005	-0.342921
6.135678	0.037792	6.057595E-005	-0.340724
6.170854	0.037676	5.978104E-005	-0.338557
6.206030	0.037562	5.899725E-005	-0.336418
6.241206	0.037449	5.822452E-005	-0.334307
6.276382	0.037338	5.746284E-005	-0.332223
6.311558	0.037228	5.671217E-005	-0.330167
6.346734	0.037119	5.597247E-005	-0.328137
6.381910	0.037012	5.524373E-005	-0.326134
6.417085	0.036907	5.452590E-005	-0.324157
6.452261	0.036803	5.381895E-005	-0.322206
6.487437	0.036701	5.312286E-005	-0.320280
6.522613	0.036600	5.243757E-005	-0.318379
6.557789	0.036500	5.176305E-005	-0.316502
6.592965	0.036402	5.109925E-005	-0.314650
6.628141	0.036306	5.044612E-005	-0.312821
6.663317	0.036211	4.980361E-005	-0.311016
6.698492	0.036117	4.917165E-005	-0.309233
6.733668	0.036026	4.855017E-005	-0.307473
6.768844	0.035935	4.793911E-005	-0.305735
6.804020	0.035846	4.733839E-005	-0.304020
6.839196	0.035758	4.674793E-005	-0.302325
6.874372	0.035672	4.616764E-005	-0.300652
6.909548	0.035588	4.559742E-005	-0.298999
6.944724	0.035504	4.503719E-005	-0.297367
6.979899	0.035422	4.448684E-005	-0.295754
7.015075	0.035341	4.394626E-005	-0.294162
7.050251	0.035262	4.341534E-005	-0.292588
7.085427	0.035184	4.289397E-005	-0.291034
7.120603	0.035107	4.238203E-005	-0.289498
7.155779	0.035031	4.187939E-005	-0.287981
7.190955	0.034957	4.138593E-005	-0.286481
7.226131	0.034883	4.090151E-005	-0.284999
7.261307	0.034811	4.042601E-005	-0.283534
7.296482	0.034740	3.995928E-005	-0.282087
7.331658	0.034670	3.950120E-005	-0.280656
7.366834	0.034601	3.905161E-005	-0.279241
7.402010	0.034534	3.861038E-005	-0.277842
7.437186	0.034467	3.817737E-005	-0.276459
7.472362	0.034401	3.775243E-005	-0.275092
7.507538	0.034336	3.733541E-005	-0.273740
7.542714	0.034272	3.692617E-005	-0.272402
7.577889	0.034209	3.652455E-005	-0.271079
7.613065	0.034148	3.613042E-005	-0.269771
7.648241	0.034086	3.574363E-005	-0.268476
7.683417	0.034026	3.536403E-005	-0.267196
7.718593	0.033967	3.499146E-005	-0.265929
7.753769	0.033908	3.462580E-005	-0.264675
7.788945	0.033850	3.426688E-005	-0.263434
7.824121	0.033794	3.391457E-005	-0.262206
7.859296	0.033737	3.356872E-005	-0.260991
7.894472	0.033682	3.322920E-005	-0.259788
7.929648	0.033627	3.289586E-005	-0.258597
7.964824	0.033573	3.256856E-005	-0.257418
8.000000	0.033520	3.224716E-005	-0.256251
