Temp	Magnetization	Heat capacity	Energy
10.000000	0.052321	6.641487E-005	-0.312360
9.954774	0.052185	6.662236E-005	-0.313796
9.909548	0.052368	6.764589E-005	-0.315247
9.864322	0.052457	6.810735E-005	-0.316971
9.819095	0.052540	6.940829E-005	-0.318977
9.773869	0.052621	6.979863E-005	-0.320051
9.728643	0.052903	7.084542E-005	-0.321187
9.683417	0.053139	7.121146E-005	-0.323110
9.638191	0.053044	7.164770E-005	-0.325082
9.592965	0.053392	7.264562E-005	-0.327007
9.547739	0.053189	7.360792E-005	-0.328342
9.502513	0.053669	7.479904E-005	-0.329983
9.457286	0.053532	7.534888E-005	-0.331881
9.412060	0.053968	7.638494E-005	-0.333402
9.366834	0.054123	7.665637E-005	-0.335524
9.321608	0.054212	7.799145E-005	-0.336931
9.276382	0.054533	7.905406E-005	-0.339038
9.231156	0.054697	7.896980E-005	-0.340869
9.185930	0.054665	8.046807E-005	-0.342356
9.140704	0.054752	8.214844E-005	-0.344778
9.095477	0.055266	8.196800E-005	-0.346595
9.050251	0.055335	8.400425E-005	-0.348537
9.005025	0.055273	8.440354E-005	-0.350385
8.959799	0.055484	8.565519E-005	-0.352739
8.914573	0.055789	8.649869E-005	-0.354350
8.869347	0.056311	8.825474E-005	-0.355934
8.824121	0.055961	8.964515E-005	-0.358733
8.778894	0.056074	8.929756E-005	-0.359701
8.733668	0.056348	9.064088E-005	-0.362060
8.688442	0.056659	9.112513E-005	-0.364814
8.643216	0.057035	9.266997E-005	-0.367083
8.597990	0.057075	9.382893E-005	-0.368900
8.552764	0.057440	9.602821E-005	-0.370596
8.507538	0.057618	9.669562E-005	-0.373167
8.462312	0.057835	9.864929E-005	-0.375841
8.417085	0.058023	9.959156E-005	-0.377888
8.371859	0.058293	1.007660E-004	-0.379944
8.326633	0.058380	1.022389E-004	-0.382816
8.281407	0.058831	1.037938E-004	-0.384901
8.236181	0.059090	1.051064E-004	-0.387487
8.190955	0.059393	1.061224E-004	-0.389153
8.145729	0.059583	1.081302E-004	-0.392553
8.100503	0.059786	1.089900E-004	-0.395088
8.055276	0.060004	1.107131E-004	-0.397767
8.010050	0.060160	1.129304E-004	-0.400264
7.964824	0.060403	1.139563E-004	-0.402035
7.919598	0.060599	1.157967E-004	-0.404979
7.874372	0.061118	1.174373E-004	-0.408341
7.829146	0.061315	1.185962E-004	-0.410910
7.783920	0.061937	1.202424E-004	-0.413774
7.738693	0.061857	1.224072E-004	-0.416409
7.693467	0.062504	1.236217E-004	-0.419428
7.648241	0.062889	1.264390E-004	-0.421913
7.603015	0.063157	1.283568E-004	-0.425105
7.557789	0.063680	1.295243E-004	-0.427846
7.512563	0.063934	1.327140E-004	-0.430441
7.467337	0.064222	1.347709E-004	-0.434302
7.422111	0.064199	1.355085E-004	-0.437152
7.376884	0.064995	1.388094E-004	-0.440423
7.331658	0.065284	1.409861E-004	-0.444175
7.286432	0.065764	1.431001E-004	-0.447116
7.241206	0.066161	1.446363E-004	-0.450129
7.195980	0.066786	1.493134E-004	-0.453615
7.150754	0.067369	1.493837E-004	-0.457421
7.105528	0.067494	1.524926E-004	-0.460399
7.060302	0.068231	1.568403E-004	-0.464145
7.015075	0.068773	1.579944E-004	-0.467743
6.969849	0.069163	1.613648E-004	-0.471627
6.924623	0.069797	1.652992E-004	-0.474995
6.879397	0.070097	1.698337E-004	-0.479468
6.834171	0.070697	1.713340E-004	-0.483235
6.788945	0.070934	1.748120E-004	-0.487012
6.743719	0.072525	1.775941E-004	-0.490713
6.698492	0.072148	1.815637E-004	-0.495105
6.653266	0.073036	1.838287E-004	-0.500082
6.608040	0.074177	1.870501E-004	-0.503570
6.562814	0.074541	1.936297E-004	-0.508279
6.517588	0.075337	1.957515E-004	-0.513134
6.472362	0.076335	2.002184E-004	-0.517190
6.427136	0.076756	2.038587E-004	-0.522048
6.381910	0.077975	2.087372E-004	-0.527462
6.336683	0.078573	2.137321E-004	-0.532003
6.291457	0.079475	2.195596E-004	-0.536462
6.246231	0.080688	2.244379E-004	-0.541985
6.201005	0.081164	2.300451E-004	-0.546926
6.155779	0.081705	2.349932E-004	-0.552378
6.110553	0.083967	2.400522E-004	-0.558152
6.065327	0.084875	2.472161E-004	-0.563687
6.020101	0.086142	2.541401E-004	-0.570176
5.974874	0.087336	2.586841E-004	-0.575337
5.929648	0.088624	2.674571E-004	-0.581757
5.884422	0.089827	2.737721E-004	-0.588043
5.839196	0.091649	2.813205E-004	-0.593677
5.793970	0.092610	2.871547E-004	-0.600591
5.748744	0.094904	2.982490E-004	-0.607242
5.703518	0.095639	3.075221E-004	-0.614597
5.658291	0.098140	3.162733E-004	-0.621740
5.613065	0.099751	3.274153E-004	-0.629528
5.567839	0.103160	3.424548E-004	-0.637485
5.522613	0.105338	3.530904E-004	-0.645391
5.477387	0.108254	3.676877E-004	-0.653418
5.432161	0.110206	3.806537E-004	-0.661514
5.386935	0.112885	3.976653E-004	-0.671734
5.341709	0.117021	4.121335E-004	-0.680862
5.296482	0.119468	4.310039E-004	-0.689537
5.251256	0.122788	4.524993E-004	-0.699480
5.206030	0.127749	4.812197E-004	-0.711359
5.160804	0.132985	5.045027E-004	-0.723099
5.115578	0.137596	5.359427E-004	-0.733465
5.070352	0.144644	5.817215E-004	-0.747591
5.025126	0.150571	6.193894E-004	-0.760760
4.979899	0.159199	6.708955E-004	-0.776530
4.934673	0.167221	7.319389E-004	-0.792527
4.889447	0.177172	8.030450E-004	-0.810806
4.844221	0.188321	9.140381E-004	-0.829692
4.798995	0.203763	1.028224E-003	-0.853543
4.753769	0.220444	1.173702E-003	-0.877918
4.708543	0.240496	1.373435E-003	-0.909102
4.663317	0.261356	1.596674E-003	-0.940525
4.618090	0.290627	1.902409E-003	-0.982227
4.572864	0.320487	2.218792E-003	-1.027428
4.527638	0.361148	2.608366E-003	-1.086932
4.482412	0.402871	2.939064E-003	-1.149559
4.437186	0.444581	3.258958E-003	-1.217696
4.391960	0.493398	3.434454E-003	-1.300006
4.346734	0.539761	3.416582E-003	-1.383338
4.301508	0.577821	3.486225E-003	-1.461322
4.256281	0.614038	3.291494E-003	-1.537800
4.211055	0.645480	3.111364E-003	-1.610387
4.165829	0.674350	2.882584E-003	-1.682987
4.120603	0.697456	2.776250E-003	-1.746614
4.075377	0.718961	2.627593E-003	-1.809231
4.030151	0.739154	2.492034E-003	-1.871122
3.984925	0.756415	2.367373E-003	-1.926424
3.939698	0.772465	2.264654E-003	-1.980231
3.894472	0.786777	2.168547E-003	-2.030407
3.849246	0.800842	2.094661E-003	-2.080850
3.804020	0.814204	1.985879E-003	-2.129949
3.758794	0.826099	1.904455E-003	-2.174970
3.713568	0.836850	1.851017E-003	-2.217638
3.668342	0.847223	1.770591E-003	-2.259052
3.623116	0.856978	1.697100E-003	-2.298921
3.577889	0.866163	1.623984E-003	-2.337368
3.532663	0.874551	1.558409E-003	-2.372955
3.487437	0.882879	1.491792E-003	-2.409340
3.442211	0.890535	1.429118E-003	-2.443101
3.396985	0.897482	1.384379E-003	-2.474142
3.351759	0.904579	1.299644E-003	-2.506460
3.306533	0.910924	1.262036E-003	-2.536069
3.261307	0.917034	1.211906E-003	-2.564648
3.216080	0.922678	1.147470E-003	-2.591545
3.170854	0.928179	1.084141E-003	-2.617839
3.125628	0.933088	1.046870E-003	-2.642016
3.080402	0.938173	1.000709E-003	-2.666831
3.035176	0.942638	9.426489E-004	-2.689217
2.989950	0.946909	9.084537E-004	-2.710742
2.944724	0.950875	8.721024E-004	-2.730985
2.899497	0.954711	8.148583E-004	-2.750662
2.854271	0.958164	7.800822E-004	-2.768653
2.809045	0.961563	7.418643E-004	-2.786392
2.763819	0.964736	6.945827E-004	-2.803101
2.718593	0.967597	6.585164E-004	-2.818376
2.673367	0.970456	6.290018E-004	-2.833664
2.628141	0.973149	5.790245E-004	-2.848196
2.582915	0.975401	5.503427E-004	-2.860420
2.537688	0.977618	5.187619E-004	-2.872564
2.492462	0.979760	4.895379E-004	-2.884368
2.447236	0.981750	4.538824E-004	-2.895358
2.402010	0.983548	4.207140E-004	-2.905386
2.356784	0.985225	3.911634E-004	-2.914746
2.311558	0.986807	3.630395E-004	-2.923657
2.266332	0.988288	3.354956E-004	-2.932037
2.221106	0.989553	3.085586E-004	-2.939233
2.175879	0.990761	2.830784E-004	-2.946113
2.130653	0.991859	2.627731E-004	-2.952404
2.085427	0.992868	2.392047E-004	-2.958205
2.040201	0.993751	2.183115E-004	-2.963303
1.994975	0.994626	1.973975E-004	-2.968378
1.949749	0.995348	1.764270E-004	-2.972578
1.904523	0.996023	1.581139E-004	-2.976512
1.859296	0.996634	1.400316E-004	-2.980084
1.814070	0.997141	1.252449E-004	-2.983061
1.768844	0.997611	1.091368E-004	-2.985830
1.723618	0.997991	9.693771E-005	-2.988063
1.678392	0.998351	8.354893E-005	-2.990191
1.633166	0.998674	7.066041E-005	-2.992103
1.587940	0.998929	6.088815E-005	-2.993620
1.542714	0.999125	5.248169E-005	-2.994784
1.497487	0.999317	4.337974E-005	-2.995922
1.452261	0.999478	3.481752E-005	-2.996881
1.407035	0.999602	2.845932E-005	-2.997618
1.361809	0.999692	2.345607E-005	-2.998161
1.316583	0.999774	1.847422E-005	-2.998649
1.271357	0.999837	1.418006E-005	-2.999025
1.226131	0.999886	1.074168E-005	-2.999315
1.180905	0.999921	7.982946E-006	-2.999527
1.135678	0.999946	5.835008E-006	-2.999678
1.090452	0.999966	4.051780E-006	-2.999794
1.045226	0.999978	2.774164E-006	-2.999871
1.000000	0.999988	1.632085E-006	-2.999930
