Temp	Magnetization	Heat capacity	Energy
2.500000	0.049099	5.483446E-005	-1.106154
2.497487	0.047030	5.616931E-005	-1.108809
2.494975	0.055928	5.676765E-005	-1.110266
2.492462	0.048959	5.217286E-005	-1.112929
2.489950	0.050768	4.879306E-005	-1.113773
2.487437	0.046136	5.621292E-005	-1.115625
2.484925	0.047221	5.454946E-005	-1.119266
2.482412	0.055430	5.379360E-005	-1.122239
2.479899	0.060032	5.385959E-005	-1.124038
2.477387	0.055578	5.440815E-005	-1.126358
2.474874	0.054242	5.628954E-005	-1.128776
2.472362	0.065984	5.670441E-005	-1.132087
2.469849	0.064837	5.552352E-005	-1.133292
2.467337	0.053315	5.693169E-005	-1.134908
2.464824	0.047953	5.798903E-005	-1.136424
2.462312	0.062332	5.873709E-005	-1.139424
2.459799	0.056974	5.533866E-005	-1.141412
2.457286	0.061562	5.711851E-005	-1.146345
2.454774	0.056147	5.983795E-005	-1.146176
2.452261	0.057366	5.753908E-005	-1.148710
2.449749	0.057757	5.464544E-005	-1.151681
2.447236	0.064064	5.972066E-005	-1.152595
2.444724	0.070024	6.337043E-005	-1.159400
2.442211	0.064804	6.320639E-005	-1.159914
2.439698	0.052561	5.995068E-005	-1.162666
2.437186	0.059731	6.098883E-005	-1.164348
2.434673	0.057302	6.682277E-005	-1.165508
2.432161	0.048558	6.100030E-005	-1.170740
2.429648	0.061726	5.472578E-005	-1.173298
2.427136	0.048506	5.903565E-005	-1.171270
2.424623	0.073422	6.395955E-005	-1.178213
2.422111	0.078109	6.179363E-005	-1.182303
2.419598	0.054961	6.424891E-005	-1.181756
2.417085	0.099444	6.283951E-005	-1.187822
2.414573	0.073089	6.986795E-005	-1.188544
2.412060	0.080344	6.655693E-005	-1.191579
2.409548	0.103126	6.802002E-005	-1.193558
2.407035	0.080063	6.248711E-005	-1.194548
2.404523	0.057376	6.431868E-005	-1.198788
2.402010	0.082728	6.514415E-005	-1.201222
2.399497	0.087804	6.492415E-005	-1.206578
2.396985	0.072047	6.541987E-005	-1.206594
2.394472	0.073427	6.343471E-005	-1.207880
2.391960	0.073511	6.986274E-005	-1.213109
2.389447	0.073757	7.773163E-005	-1.215454
2.386935	0.076898	6.755305E-005	-1.216100
2.384422	0.128580	7.258885E-005	-1.226409
2.381910	0.065767	7.072012E-005	-1.226037
2.379397	0.070145	8.262329E-005	-1.228709
2.376884	0.083717	6.778636E-005	-1.228429
2.374372	0.102731	6.789338E-005	-1.233800
2.371859	0.115178	7.750177E-005	-1.238135
2.369347	0.106507	8.002578E-005	-1.243629
2.366834	0.069145	7.136927E-005	-1.239363
2.364322	0.080723	7.661113E-005	-1.244321
2.361809	0.100173	7.188980E-005	-1.247157
2.359296	0.102620	8.404983E-005	-1.252460
2.356784	0.093026	7.444639E-005	-1.259405
2.354271	0.106754	7.345092E-005	-1.258607
2.351759	0.096974	7.895004E-005	-1.261689
2.349246	0.109574	8.853367E-005	-1.265085
2.346734	0.108729	8.304761E-005	-1.269260
2.344221	0.136422	9.531323E-005	-1.271632
2.341709	0.148865	8.068472E-005	-1.277053
2.339196	0.083120	7.936709E-005	-1.278201
2.336683	0.180290	9.564607E-005	-1.287129
2.334171	0.159499	9.285124E-005	-1.284893
2.331658	0.136182	8.882235E-005	-1.286725
2.329146	0.119181	8.126790E-005	-1.292219
2.326633	0.147492	9.798346E-005	-1.302637
2.324121	0.185855	9.984073E-005	-1.301974
2.321608	0.097231	7.587749E-005	-1.304761
2.319095	0.091118	8.539270E-005	-1.305749
2.316583	0.104242	8.495917E-005	-1.308937
2.314070	0.102268	8.589683E-005	-1.312359
2.311558	0.053977	9.985617E-005	-1.317152
2.309045	0.195678	8.664049E-005	-1.329436
2.306533	0.139400	1.025123E-004	-1.327292
2.304020	0.162376	8.677633E-005	-1.334079
2.301508	0.142798	9.967739E-005	-1.336358
2.298995	0.128705	7.770565E-005	-1.332707
2.296482	0.418434	1.278977E-004	-1.363418
2.293970	0.401488	1.206314E-004	-1.360439
2.291457	0.210059	9.805674E-005	-1.356422
2.288945	0.436262	1.217108E-004	-1.371476
2.286432	0.444922	1.038665E-004	-1.376084
2.283920	0.159202	1.064398E-004	-1.372508
2.281407	0.475449	1.435281E-004	-1.392651
2.278894	0.601268	1.031666E-004	-1.410288
2.276382	0.554872	1.236086E-004	-1.406913
2.273869	0.500369	1.178830E-004	-1.402418
2.271357	0.586941	1.060072E-004	-1.417691
2.268844	0.547907	1.347999E-004	-1.415812
2.266332	0.544715	1.021481E-004	-1.414197
2.263819	0.505126	1.249360E-004	-1.421405
2.261307	0.619817	1.395807E-004	-1.437865
2.258794	0.658506	1.098162E-004	-1.445293
2.256281	0.638570	1.377043E-004	-1.446045
2.253769	0.622596	1.285769E-004	-1.446915
2.251256	0.567775	1.200028E-004	-1.446365
2.248744	0.707896	9.685992E-005	-1.471737
2.246231	0.719000	9.829386E-005	-1.477739
2.243719	0.695351	1.088000E-004	-1.474509
2.241206	0.691888	1.065819E-004	-1.475742
2.238693	0.733160	1.007460E-004	-1.489920
2.236181	0.692344	1.099450E-004	-1.481120
2.233668	0.743897	9.024410E-005	-1.498824
2.231156	0.747418	9.627160E-005	-1.503228
2.228643	0.744481	8.894039E-005	-1.503554
2.226131	0.758716	8.791296E-005	-1.512523
2.223618	0.751713	1.066444E-004	-1.511742
2.221106	0.757953	1.019563E-004	-1.517842
2.218593	0.754061	1.008000E-004	-1.515538
2.216080	0.763746	8.415925E-005	-1.524674
2.213568	0.748651	9.567350E-005	-1.521953
2.211055	0.770919	9.747284E-005	-1.530859
2.208543	0.778651	7.424064E-005	-1.536514
2.206030	0.749844	9.741996E-005	-1.531705
2.203518	0.781500	9.384374E-005	-1.542025
2.201005	0.786736	8.380038E-005	-1.548084
2.198492	0.788962	8.169433E-005	-1.549368
2.195980	0.793672	9.233686E-005	-1.553523
2.193467	0.793733	7.838499E-005	-1.555026
2.190955	0.795364	8.221207E-005	-1.558279
2.188442	0.797560	8.358897E-005	-1.561185
2.185930	0.800744	9.019974E-005	-1.564699
2.183417	0.804542	8.218932E-005	-1.568599
2.180905	0.809715	7.861616E-005	-1.572726
2.178392	0.813051	7.361649E-005	-1.576313
2.175879	0.814017	7.876945E-005	-1.580000
2.173367	0.815352	8.241462E-005	-1.582096
2.170854	0.820538	6.991619E-005	-1.586216
2.168342	0.817632	8.128971E-005	-1.585858
2.165829	0.822769	7.874702E-005	-1.591643
2.163317	0.824882	6.393281E-005	-1.595037
2.160804	0.824648	7.289154E-005	-1.595503
2.158291	0.828957	7.041644E-005	-1.600554
2.155779	0.830243	7.040374E-005	-1.602473
2.153266	0.831538	7.582626E-005	-1.604714
2.150754	0.838403	6.509188E-005	-1.611431
2.148241	0.837827	6.537340E-005	-1.611684
2.145729	0.837907	6.664038E-005	-1.614040
2.143216	0.840909	6.305124E-005	-1.617795
2.140704	0.846086	6.487429E-005	-1.622814
2.138191	0.844699	6.181485E-005	-1.622077
2.135678	0.847422	6.818585E-005	-1.626010
2.133166	0.848817	6.682040E-005	-1.628955
2.130653	0.850002	6.523562E-005	-1.630612
2.128141	0.849030	6.573634E-005	-1.631980
2.125628	0.849216	6.834342E-005	-1.634156
2.123116	0.855840	5.961405E-005	-1.638567
2.120603	0.855216	6.427874E-005	-1.640601
2.118090	0.857836	6.186545E-005	-1.643566
2.115578	0.859844	6.727240E-005	-1.646781
2.113065	0.861112	6.349425E-005	-1.649176
2.110553	0.861813	5.883589E-005	-1.651262
2.108040	0.863466	6.206694E-005	-1.654221
2.105528	0.865220	6.075178E-005	-1.656133
2.103015	0.864909	6.018112E-005	-1.657497
2.100503	0.868279	5.538221E-005	-1.660826
2.097990	0.871015	5.588033E-005	-1.664738
2.095477	0.868167	5.945008E-005	-1.664108
2.092965	0.872321	5.362052E-005	-1.668784
2.090452	0.874940	5.401612E-005	-1.671933
2.087940	0.874412	5.405744E-005	-1.673221
2.085427	0.876437	5.595477E-005	-1.676864
2.082915	0.876433	6.148963E-005	-1.677195
2.080402	0.878753	5.544498E-005	-1.680406
2.077889	0.880373	5.728068E-005	-1.682578
2.075377	0.881556	5.184378E-005	-1.685061
2.072864	0.881504	5.342954E-005	-1.686835
2.070352	0.885291	5.473424E-005	-1.690973
2.067839	0.885118	5.344461E-005	-1.691636
2.065327	0.886198	5.177077E-005	-1.693608
2.062814	0.886286	5.322835E-005	-1.694715
2.060302	0.888337	5.140300E-005	-1.698393
2.057789	0.889373	5.126463E-005	-1.700197
2.055276	0.890648	5.306316E-005	-1.702635
2.052764	0.892069	5.272803E-005	-1.705232
2.050251	0.893130	4.939564E-005	-1.707086
2.047739	0.894267	4.952947E-005	-1.709161
2.045226	0.894761	5.029187E-005	-1.710757
2.042714	0.895987	4.948359E-005	-1.713094
2.040201	0.897294	5.032368E-005	-1.714990
2.037688	0.898356	4.746359E-005	-1.717801
2.035176	0.899170	5.194397E-005	-1.719427
2.032663	0.900611	4.567357E-005	-1.721167
2.030151	0.900848	4.919079E-005	-1.723279
2.027638	0.900558	4.850512E-005	-1.723727
2.025126	0.901837	4.944102E-005	-1.726361
2.022613	0.902937	4.705858E-005	-1.727539
2.020101	0.904863	4.501005E-005	-1.730998
2.017588	0.904738	4.514267E-005	-1.731791
2.015075	0.906606	4.543007E-005	-1.734973
2.012563	0.907028	4.412048E-005	-1.736136
2.010050	0.907465	4.651864E-005	-1.738319
2.007538	0.908663	4.575981E-005	-1.739761
2.005025	0.909565	4.634895E-005	-1.741919
2.002513	0.910350	4.410713E-005	-1.743818
2.000000	0.910947	4.081740E-005	-1.744986
