Temp	Magnetization	Heat capacity	Energy
8.000000	0.033536	3.317625E-005	-0.256734
7.964824	0.033336	3.341918E-005	-0.257581
7.929648	0.033468	3.358361E-005	-0.259026
7.894472	0.033437	3.404668E-005	-0.260160
7.859296	0.033498	3.437472E-005	-0.261558
7.824121	0.033531	3.472064E-005	-0.263104
7.788945	0.033652	3.503232E-005	-0.263954
7.753769	0.033692	3.537600E-005	-0.265264
7.718593	0.033942	3.571375E-005	-0.266658
7.683417	0.033813	3.577918E-005	-0.268004
7.648241	0.033907	3.644091E-005	-0.269220
7.613065	0.033911	3.663821E-005	-0.270501
7.577889	0.034028	3.691840E-005	-0.271888
7.542714	0.034286	3.727533E-005	-0.273073
7.507538	0.034096	3.793774E-005	-0.274805
7.472362	0.034235	3.811934E-005	-0.276055
7.437186	0.034126	3.847357E-005	-0.276901
7.402010	0.034453	3.873755E-005	-0.278478
7.366834	0.034339	3.935052E-005	-0.279663
7.331658	0.034428	3.998350E-005	-0.281611
7.296482	0.034431	4.060869E-005	-0.282874
7.261307	0.034564	4.071558E-005	-0.284129
7.226131	0.034579	4.119151E-005	-0.285434
7.190955	0.034749	4.134962E-005	-0.287082
7.155779	0.034628	4.195987E-005	-0.288571
7.120603	0.034787	4.269719E-005	-0.290533
7.085427	0.035000	4.315643E-005	-0.292013
7.050251	0.035093	4.349317E-005	-0.293364
7.015075	0.035155	4.416979E-005	-0.295218
6.979899	0.035196	4.430650E-005	-0.296987
6.944724	0.035049	4.517959E-005	-0.298040
6.909548	0.035396	4.530906E-005	-0.300008
6.874372	0.035376	4.612818E-005	-0.301452
6.839196	0.035443	4.629289E-005	-0.303284
6.804020	0.035461	4.680403E-005	-0.304863
6.768844	0.035613	4.749550E-005	-0.306623
6.733668	0.035709	4.829379E-005	-0.308078
6.698492	0.035796	4.873006E-005	-0.309967
6.663317	0.035823	4.900804E-005	-0.311756
6.628141	0.035813	4.943230E-005	-0.313334
6.592965	0.036127	5.012621E-005	-0.315405
6.557789	0.036045	5.090990E-005	-0.317377
6.522613	0.036272	5.158457E-005	-0.318917
6.487437	0.036228	5.228545E-005	-0.320711
6.452261	0.036101	5.275176E-005	-0.322737
6.417085	0.036204	5.327251E-005	-0.324521
6.381910	0.036410	5.435121E-005	-0.326362
6.346734	0.036728	5.451700E-005	-0.328376
6.311558	0.036695	5.554369E-005	-0.330399
6.276382	0.036767	5.600597E-005	-0.332985
6.241206	0.036842	5.709319E-005	-0.334337
6.206030	0.037212	5.770335E-005	-0.336860
6.170854	0.037045	5.850964E-005	-0.338603
6.135678	0.037310	5.898829E-005	-0.341106
6.100503	0.037253	5.978380E-005	-0.342820
6.065327	0.037499	6.091674E-005	-0.345542
6.030151	0.037492	6.167706E-005	-0.347214
5.994975	0.037496	6.215852E-005	-0.349558
5.959799	0.037836	6.288722E-005	-0.351779
5.924623	0.037663	6.408564E-005	-0.354116
5.889447	0.037986	6.468039E-005	-0.356616
5.854271	0.038338	6.596386E-005	-0.359109
5.819095	0.038435	6.691611E-005	-0.361676
5.783920	0.038368	6.728941E-005	-0.363913
5.748744	0.038534	6.856171E-005	-0.366281
5.713568	0.038704	6.974150E-005	-0.368821
5.678392	0.038794	7.058896E-005	-0.371274
5.643216	0.039160	7.184163E-005	-0.373969
5.608040	0.039199	7.281022E-005	-0.376372
5.572864	0.039454	7.369500E-005	-0.378819
5.537688	0.039360	7.481641E-005	-0.381786
5.502513	0.039732	7.533154E-005	-0.384014
5.467337	0.039804	7.645404E-005	-0.387105
5.432161	0.039812	7.851227E-005	-0.390120
5.396985	0.040277	7.945632E-005	-0.392549
5.361809	0.040323	8.036116E-005	-0.395624
5.326633	0.040545	8.240467E-005	-0.398724
5.291457	0.040481	8.345418E-005	-0.401598
5.256281	0.040820	8.533704E-005	-0.404794
5.221106	0.040877	8.638532E-005	-0.407582
5.185930	0.041023	8.745846E-005	-0.410511
5.150754	0.041348	8.944875E-005	-0.413903
5.115578	0.041641	9.040804E-005	-0.417671
5.080402	0.041804	9.209128E-005	-0.420960
5.045226	0.041869	9.357993E-005	-0.424206
5.010050	0.042070	9.401071E-005	-0.427115
4.974874	0.042427	9.585429E-005	-0.430842
4.939698	0.042820	9.866821E-005	-0.434456
4.904523	0.042811	9.897828E-005	-0.438137
4.869347	0.043276	1.014444E-004	-0.441748
4.834171	0.043212	1.030180E-004	-0.444758
4.798995	0.043282	1.056246E-004	-0.448679
4.763819	0.043909	1.069974E-004	-0.452824
4.728643	0.043948	1.096454E-004	-0.456654
4.693467	0.044234	1.112207E-004	-0.460185
4.658291	0.044600	1.128469E-004	-0.464344
4.623116	0.044587	1.158876E-004	-0.468472
4.587940	0.045123	1.174859E-004	-0.472832
4.552764	0.045276	1.207751E-004	-0.477146
4.517588	0.045695	1.232914E-004	-0.481682
4.482412	0.045925	1.249009E-004	-0.485581
4.447236	0.046119	1.267112E-004	-0.490599
4.412060	0.046892	1.299237E-004	-0.495260
4.376884	0.047108	1.335224E-004	-0.499729
4.341709	0.047449	1.360917E-004	-0.504908
4.306533	0.047733	1.385006E-004	-0.509456
4.271357	0.048303	1.404688E-004	-0.514422
4.236181	0.048265	1.450864E-004	-0.519512
4.201005	0.048846	1.462810E-004	-0.524913
4.165829	0.049356	1.502344E-004	-0.530282
4.130653	0.049779	1.542647E-004	-0.535929
4.095477	0.050433	1.578112E-004	-0.541567
4.060302	0.050593	1.593916E-004	-0.546898
4.025126	0.051192	1.641826E-004	-0.553116
3.989950	0.051904	1.689882E-004	-0.559172
3.954774	0.052278	1.735567E-004	-0.564932
3.919598	0.052430	1.761200E-004	-0.571734
3.884422	0.053343	1.803564E-004	-0.578339
3.849246	0.054020	1.855260E-004	-0.584448
3.814070	0.054942	1.906876E-004	-0.591267
3.778894	0.055364	1.938629E-004	-0.598629
3.743719	0.056133	1.991033E-004	-0.605275
3.708543	0.056807	2.051428E-004	-0.612996
3.673367	0.057352	2.116332E-004	-0.619434
3.638191	0.058022	2.174509E-004	-0.627475
3.603015	0.059007	2.221298E-004	-0.635611
3.567839	0.060316	2.281648E-004	-0.643666
3.532663	0.060673	2.374235E-004	-0.652417
3.497487	0.061968	2.413748E-004	-0.660413
3.462312	0.062833	2.482578E-004	-0.669530
3.427136	0.063997	2.580476E-004	-0.678996
3.391960	0.065381	2.655848E-004	-0.688902
3.356784	0.066981	2.715069E-004	-0.698528
3.321608	0.066909	2.831383E-004	-0.707608
3.286432	0.069430	2.916267E-004	-0.717625
3.251256	0.071144	3.035782E-004	-0.729542
3.216080	0.072784	3.132860E-004	-0.740081
3.180905	0.074002	3.240379E-004	-0.751785
3.145729	0.075689	3.331284E-004	-0.763259
3.110553	0.077533	3.458415E-004	-0.775526
3.075377	0.078576	3.565789E-004	-0.787671
3.040201	0.081992	3.728369E-004	-0.801353
3.005025	0.085350	3.876042E-004	-0.814847
2.969849	0.087442	4.047504E-004	-0.829239
2.934673	0.090743	4.262101E-004	-0.844592
2.899497	0.094474	4.468837E-004	-0.860384
2.864322	0.097470	4.667959E-004	-0.877051
2.829146	0.102651	4.825903E-004	-0.893789
2.793970	0.106067	5.043419E-004	-0.911101
2.758794	0.113542	5.375417E-004	-0.929671
2.723618	0.117531	5.594050E-004	-0.949225
2.688442	0.126209	5.992810E-004	-0.969503
2.653266	0.135318	6.375902E-004	-0.992246
2.618090	0.144160	6.686581E-004	-1.016660
2.582915	0.157717	7.150935E-004	-1.040948
2.547739	0.169472	7.697993E-004	-1.067657
2.512563	0.198535	8.444899E-004	-1.097746
2.477387	0.216193	9.190749E-004	-1.126203
2.442211	0.256030	1.016815E-003	-1.164578
2.407035	0.303333	1.224363E-003	-1.204784
2.371859	0.367379	1.478849E-003	-1.251696
2.336683	0.456795	1.709461E-003	-1.307863
2.301508	0.567054	1.834743E-003	-1.372623
2.266332	0.662158	1.797622E-003	-1.440055
2.231156	0.749267	1.470153E-003	-1.505032
2.195980	0.792605	1.340907E-003	-1.554142
2.160804	0.827829	1.145436E-003	-1.597975
2.125628	0.853634	1.034715E-003	-1.637222
2.090452	0.873881	9.213769E-004	-1.671124
2.055276	0.890015	8.354039E-004	-1.701867
2.020101	0.904684	7.526879E-004	-1.731171
1.984925	0.916492	6.709860E-004	-1.756939
1.949749	0.926220	6.279944E-004	-1.779777
1.914573	0.935273	5.720239E-004	-1.801815
1.879397	0.942659	5.288283E-004	-1.820559
1.844221	0.949590	4.745440E-004	-1.839140
1.809045	0.955500	4.412376E-004	-1.855379
1.773869	0.960737	4.013468E-004	-1.870446
1.738693	0.965488	3.660030E-004	-1.884369
1.703518	0.969803	3.363601E-004	-1.897305
1.668342	0.973486	3.091259E-004	-1.908699
1.633166	0.976799	2.802824E-004	-1.919122
1.597990	0.979877	2.526054E-004	-1.929060
1.562814	0.982464	2.303352E-004	-1.937555
1.527638	0.984734	2.089533E-004	-1.945168
1.492462	0.986966	1.868264E-004	-1.952717
1.457286	0.988808	1.694218E-004	-1.959039
1.422111	0.990507	1.509861E-004	-1.964997
1.386935	0.991897	1.346635E-004	-1.969906
1.351759	0.993168	1.194162E-004	-1.974478
1.316583	0.994311	1.045578E-004	-1.978583
1.281407	0.995250	9.177614E-005	-1.982035
1.246231	0.996106	8.013865E-005	-1.985181
1.211055	0.996813	6.872316E-005	-1.987816
1.175879	0.997427	5.957831E-005	-1.990097
1.140704	0.997948	4.963858E-005	-1.992077
1.105528	0.998395	4.155152E-005	-1.993771
1.070352	0.998753	3.396968E-005	-1.995146
1.035176	0.999043	2.822042E-005	-1.996256
1.000000	0.999280	2.267290E-005	-1.997175
